Pressure (PA)
576.981289
581.760840
585.169372
581.252559
586.486200
591.426114
593.034384
596.603101
594.308010
594.395546
602.581289
600.844963
602.099040
603.256564
608.485797
611.539117
610.755222
615.313189
616.469135
620.584293
623.071482
621.357715
629.432617
626.006649
632.066410
630.134699
635.373055
632.407316
638.508242
637.625446
643.612199
644.525248
647.561633
646.911797
650.700170
655.027654
656.821936
653.464360
659.520554
656.177562
664.403851
661.461822
667.548485
665.583323
670.579692
671.254060
670.737923
675.895155
678.214630
676.006265
677.178119
681.598676
686.589316
686.789647
686.473469
686.048755
695.108743
689.989884
690.633352
692.995200
693.816599
700.810182
697.461557
703.534656
710.126468
701.710144
707.894857
712.441765
712.793602
715.328813
712.100912
722.273049
715.911677
718.842726
719.831290
719.411987
729.708184
724.188689
729.781983
726.789781
735.629905
730.227091
739.906122
737.077932
733.269782
735.172635
742.421669
740.119973
744.796825
745.536071
745.222970
742.153152
754.483125
752.496400
755.854271
754.900670
756.827427
753.093014
757.292154
756.674061
760.320458
760.930774
766.917275
762.604374
768.139393
765.092973
762.693485
767.423674
770.237293
776.900669
769.579466
775.380170
779.820167
781.588077
773.718706
776.696479
777.708982
787.633734
786.387892
787.372577
790.228096
781.016349
792.375518
793.119989
793.117738
794.183935
792.988915
794.070459
801.207271
797.109400
799.703591
798.611946
796.751086
800.281993
807.040112
807.768494
811.235475
805.720843
812.149882
806.936709
810.717113
811.067730
813.545967
813.567535
815.845626
808.654413
812.916294
812.199520
812.347740
813.321424
820.428055
826.159811
827.542533
816.192153
816.671256
826.206733
820.594542
823.168632
821.419807
821.740297
831.036272
834.630116
827.883450
835.642265
838.124150
834.058279
826.549316
838.391541
835.676333
835.445055
840.971609
835.228874
845.419819
834.056538
842.109870
845.246090
844.387062
839.056659
843.496493
837.187365
847.527159
843.977817
848.563965
839.608466
842.968644
846.555406
849.276443
844.360944
847.915340
852.587047
858.288777
848.099870
844.853752
851.839297
858.417323
850.228491
847.517858
858.623752
852.673753
853.156555
854.105253
855.674718
851.112737
860.533163
856.802500
855.028011
868.522264
867.139958
870.595983
857.354899
862.690650
871.016956
865.983310
872.581864
870.905580
872.434843
867.712274
862.558172
874.558509
870.653878
863.459686
870.881585
862.342710
872.846272
866.742017
868.808297
878.275156
879.253207
865.431567
879.449747
876.540425
880.086137
870.447829
871.346001
880.967174
870.052562
877.918400
878.226017
874.642158
884.688800
877.671434
871.196796
877.857238
877.298009
877.559687
881.744371
881.149892
886.095278
881.167029
881.017981
877.557173
877.736704
888.340580
880.418320
878.042532
888.660604
879.208411
880.379942
888.147539
882.191092
885.370044
890.094240
890.196732
889.476027
894.743996
892.289274
896.572544
886.055369
882.436752
891.876193
894.146987
884.040588
886.353573
894.885091
893.664487
886.747765
886.037913
889.209381
896.217115
897.788529
892.340780
891.079892
901.748051
886.322139
889.747220
896.412584
892.348890
893.883419
897.925798
900.614866
887.269773
892.652937
895.966234
898.066384
901.918417
891.836580
899.076018
904.779125
891.450773
896.222190
896.345766
902.211351
895.904688
900.571921
895.436998
897.290167
892.587275
904.149905
908.906817
896.687015
895.291223
903.093161
904.275646
894.689884
902.146863
894.434339
899.147855
909.029934
903.205825
905.562643
897.603525
902.659152
910.627587
904.449915
895.703743
904.708943
910.115522
902.718898
896.381449
898.492452
912.399234
898.728196
897.343226
896.847359
900.254565
910.246722
910.243047
913.298499
910.027708
912.451079
902.500238
907.722684
902.612633
898.404041
901.437993
905.960229
907.840519
912.355952
914.220139
904.170014
906.384771
908.081027
902.390906
912.533988
908.727233
915.970833
912.295262
906.448855
902.733505
904.917381
904.020043
910.165260
913.844200
910.875750
914.076697
912.751677
908.460184
912.158741
903.382446
914.235328
906.483853
916.375390
914.625101
915.497842
908.035598
917.507798
911.062623
917.307420
918.326486
907.599519
904.749163
917.241472
918.354694
907.237881
910.673457
907.798314
911.868254
916.761846
911.578296
919.388597
915.519516
906.130156
915.050307
907.624850
905.383593
912.806819
910.624916
913.193168
909.494778
911.618854
920.697176
908.303735
921.150477
911.324017
906.742904
915.659193
922.037351
923.001280
910.118670
924.354948
913.463460
918.093527
917.181080
917.239226
917.213807
909.746961
911.711681
908.580053
910.803585
919.179751
921.504689
913.483033
923.444201
909.253785
914.904091
911.274803
914.741721
922.471589
924.382575
910.908055
923.368062
924.912227
915.325917
917.758141
917.917935
909.775953
923.446893
912.065275
914.239760
909.930836
916.309847
923.271819
922.078282
915.573232
920.212523
920.439737
926.699046
913.058651
922.773933
915.018916
913.842476
914.253248
912.602897
914.135945
915.968667
925.777764
909.629347
920.268321
926.399773
914.261310
909.831522
918.049169
917.111802
925.519223
916.445935
918.114260
923.175525
916.470137
910.316236
919.278994
924.917770
916.919313
916.029666
920.351835
927.407837
910.807980
928.049359
915.515494
918.232929
911.666917
921.671481
919.566313
914.506454
922.084698
926.203143
918.864766
918.294779
914.250409
911.182821
923.128364
929.635401
928.410585
920.986155
911.551982
928.995637
923.179479
926.668983
913.838104
918.111639
913.819155
915.948916
921.105579
928.761259
920.724551
922.565801
919.423820
912.388395
912.637234
912.012674
921.061262
917.048838
927.672018
926.909853
926.017577
913.832963
929.219859
917.944104
927.315725
915.598832
924.811747
915.995480
915.902289
925.099440
927.232107
927.983539
914.102111
918.096026
928.782662
919.120246
928.204481
929.661864
917.314656
927.498173
931.207526
931.052840
923.789492
920.530080
930.492161
931.278094
920.673539
924.831193
928.490475
919.882325
921.202974
915.852465
924.059445
930.674237
913.303123
931.040366
929.353899
923.276963
916.824619
924.139309
917.761458
925.415822
925.474505
920.536904
914.702194
928.689519
929.704198
923.616598
914.198861
917.450195
929.122540
917.659574
918.901976
926.581876
929.399583
914.062644
917.826392
922.597770
925.161688
927.283220
921.114028
930.231788
919.649280
928.632008
916.149711
920.909357
931.760290
916.672734
930.002278
928.116018
925.374548
928.921904
920.364657
930.359809
917.039674
919.500966
927.091662
918.776127
917.396944
927.630855
922.906030
932.414857
918.894377
915.069925
914.693461
920.585950
925.073908
932.617635
926.073350
920.206490
925.464215
928.601547
915.298239
928.278891
932.311443
928.102142
918.030286
918.172672
930.685105
930.549606
931.999579
917.803939
922.350030
926.799752
919.025660
920.481278
928.054443
921.737215
924.492549
929.342569
922.396652
917.261464
919.679571
917.562282
923.863607
926.789387
929.954920
931.640396
924.637078
931.637329
922.289212
917.856379
932.636189
926.311811
923.426912
921.327477
931.274450
919.394955
926.095230
932.931692
932.327340
933.423533
922.875086
919.248484
931.768904
932.295712
921.667655
916.702072
925.954577
919.144358
924.118243
928.616660
926.661590
924.771235
920.331159
922.800794
925.036608
928.684463
921.659997
932.971140
932.436425
920.128538
933.277995
921.808220
917.338958
917.075504
928.161714
918.583774
923.225654
916.405338
918.942773
928.656944
915.421400
920.293618
928.374395
922.665262
919.931238
925.451736
933.181726
916.218634
924.849452
932.322695
932.864211
922.067804
928.292936
920.142664
923.462730
920.705462
921.785112
928.096031
923.741290
918.996389
921.409219
916.041200
921.834084
929.208169
925.616381
929.131792
919.800861
924.218066
931.795342
921.277340
921.679657
917.188929
924.709943
925.430932
921.635087
916.842385
928.022992
933.588098
919.719336
932.617047
924.211585
919.260132
923.996165
919.261657
928.325995
926.639247
925.191105
929.270268
919.819616
924.993324
922.280209
924.449558
918.562578
919.192718
924.995914
917.931040
924.998805
916.249767
932.618289
927.108742
923.265940
930.206554
921.706470
921.710953
920.154803
919.709237
922.579770
919.258139
928.703222
929.395830
932.939891
920.921798
925.967116
931.967778
920.983828
915.889357
926.023355
931.138711
934.033580
928.892974
925.977456
933.340100
932.973108
933.513155
922.174250
933.704579
918.326958
930.559473
929.926438
932.336730
917.336934
931.283399
927.713736
932.573638
923.258927
926.967053
925.383558
916.146169
931.035168
916.844675
925.576369
916.676353
928.224161
917.841656
933.773153
921.170167
918.429318
928.686062
922.704471
916.028192
924.830073
919.166231
921.494505
933.702392
932.240933
915.978643
929.470362
932.780044
934.085295
925.032772
930.131552
919.381664
923.806206
928.022963
924.790670
926.439463
924.067611
916.461373
932.979572
933.473312
929.251356
922.672614
926.750309
921.049783
927.056032
932.063845
927.661507
918.694189
920.991237
923.591428
928.986143
923.419923
926.911458
930.953513
933.982428
917.486582
918.504244
918.095928
920.275375
922.794155
930.426425
929.579684
934.191206
927.967019
920.422342
928.950760
934.178983
933.858945
921.300083
929.152407
932.606485
927.049506
922.600486
927.781079
922.708878
922.203273
917.202341
920.925462
932.216059
921.611337
929.775508
918.113759
922.545451
933.345940
921.380414
926.413669
929.779579
921.900601
923.125994
920.275452
928.347291
920.541329
933.767583
932.248934
918.142095
928.237447
916.006669
923.365718
929.344129
927.752452
925.246256
929.245456
919.544916
929.214614
930.822303
920.622884
921.819865
921.240164
931.101587
927.006435
922.435660
931.585477
931.230668
919.216673
919.037458
917.910905
932.074938
922.465373
923.709761
918.357294
920.580970
933.704888
918.539059
925.648197
925.277927
924.579629
926.886308
927.023078
930.488091
932.209160
920.918567
933.899429
915.898409
932.992843
927.012375
928.063022
922.134260
924.937579
933.858364
933.437242
926.746830
925.653177
916.672580
928.743465
921.982843
921.746021
934.080506
920.876520
925.451543
932.558543
925.745277
927.477576
916.899333
929.865075
919.703753
917.468547
917.402403
930.226399
928.107943
933.860535
926.497111
919.046114
918.831223
932.860855
916.415888
931.312925
920.046442
924.976176
920.689401
919.721226
916.771336
922.866379
928.447388
917.592389
927.558745
932.147325
927.411268
926.144445
921.044074
917.771830
932.258414
918.168630
932.769538
930.266797
934.036146
926.978587
921.867338
919.602599
924.448001
923.782484
925.008639
917.131070
917.745426
923.309124
924.633353
927.632266
931.089863
922.306569
931.549920
931.695832
932.270191
919.231835
932.364614
927.533398
920.104943
918.196671
932.897951
923.820966
927.721136
931.191985
918.853789
923.395614
919.324417
927.909225
917.535866
932.016330
923.136992
922.174097
933.213328
919.292677
916.555504
920.128429
925.156515
923.362865
927.224770
931.618936
928.845905
922.443044
925.924053
918.169000
921.368197
923.184541
927.116737
925.627247
928.908299
